CO_{2}	CO_{2}	CO_{2} - BH3	CO_{2} - BH3	CO_{2} - BH3						BH_{3}	BH_{3}	BH_{3} - BH3	BH_{3} - BH3	BH_{3} - BH3	BH_{3} - Add-CO2	BH_{3} - Add-CO2	BH_{3} - Add-CO2			AlH_{3}	AlH_{3}	AlH_{3} - BH3	AlH_{3} - BH3	AlH_{3} - BH3	AlH_{3} - Add-CO2	AlH_{3} - Add-CO2	AlH_{3} - Add-CO2			NMe_{3}	NMe_{3}	NMe_{3} - BH3	NMe_{3} - BH3	NMe_{3} - BH3	NMe_{3} - Add-CO2	NMe_{3} - Add-CO2	NMe_{3} - Add-CO2	NMe_{3} - Add-CO2		PMe_{3}	PMe_{3}	PMe_{3} - BH3	PMe_{3} - BH3	PMe_{3} - BH3	PMe_{3} - Add-CO2	PMe_{3} - Add-CO2	PMe_{3} - Add-CO2	PMe_{3} - Add-CO2		NCB	NCB	NCB - BH3	NCB - BH3	NCB - BH3	NCB - Add-CO2	NCB - Add-CO2	NCB - Add-CO2			NCAl	NCAl	NCAl - BH3	NCAl - BH3	NCAl - BH3	NCAl - Add-CO2	NCAl - Add-CO2	NCAl - Add-CO2			PCB	PCB	PCB - BH3	PCB - BH3	PCB - BH3	PCB - Add-CO2	PCB - Add-CO2	PCB - Add-CO2			PCAl	PCAl	PCAl - BH3	PCAl - BH3	PCAl - BH3	PCAl - Add-CO2	PCAl - Add-CO2	PCAl - Add-CO2
BH distance	OCO angle	Strain	Interaction	Total Energy						BH distance	OCO angle	Strain	Interaction	Total Energy	Strain	Interaction	Total Energy			BH distance	OCO angle	Strain	Interaction	Total Energy	Strain	Interaction	Total Energy			BH distance	OCO angle	Strain	Interaction	Total Energy	Strain	Interaction	Total Energy	Frag NMe3		BH distance	OCO angle	Strain	Interaction	Total Energy	Strain	Interaction	Total Energy	Frag PMe3		BH distance	OCO angle	Strain	Interaction	Total Energy	Strain	Interaction	Total Energy			BH distance	OCO angle	Strain	Interaction	Total Energy	Strain	Interaction	Total Energy			BH distance	OCO angle	Strain	Interaction	Total Energy	Strain	Interaction	Total Energy			BH distance	OCO angle	Strain	Interaction	Total Energy	Strain	Interaction	Total Energy
1.196	179.662	0.160	-2.314	-2.15						1.196	179.176	0.201	-1.915	-1.714						1.196	178.532	0.105	-1.074	-0.969						2.453	122.104	198.854	-221.144	-22.290						2.317	119.400	195.382	-200.174	-4.792						1.217	130	16.417	-36.497	-20.080						1.228	128.99	17.133	-37.219	-20.086						1.213	127.319	16.419	-37.856	-21.437						1.216	126.572	15.999	-35.060	-19.061			
1.196	179.662	0.160	-2.314	-2.15						1.196	179.182	0.212	-1.910	-1.698						1.196	178.539	0.117	-1.066	-0.949						2.456	122.063	199.574	-221.825	-22.251						2.315	119.465	194.896	-199.694	-4.799						1.217	130.007	16.414	-36.481	-20.066						1.228	128.986	17.162	-37.226	-20.063						1.215	127.322	16.441	-37.878	-21.437						1.214	126.583	15.956	-34.899	-18.942			
1.197	179.678	0.165	-2.305	-2.14						1.196	179.193	0.226	-1.904	-1.678						1.196	178.536	0.128	-1.051	-0.923						2.448	122.211	197.891	-219.580	-21.689						2.296	119.462	193.594	-197.327	-3.733						1.217	130.014	16.409	-36.455	-20.046						1.228	128.984	17.170	-37.208	-20.038						1.213	127.305	16.363	-37.719	-21.356						1.217	126.600	15.955	-34.777	-18.822			
1.197	179.694	0.174	-2.296	-2.12						1.196	179.193	0.237	-1.891	-1.654						1.196	178.523	0.137	-1.026	-0.889						2.442	122.317	196.969	-217.986	-21.017						2.271	119.533	191.334	-193.905	-2.571						1.217	130.021	16.406	-36.423	-20.017						1.228	128.983	17.186	-37.194	-20.009						1.214	127.294	16.325	-37.591	-21.266						1.215	126.613	15.932	-34.641	-18.709			
1.197	179.71	0.192	-2.293	-2.10						1.196	179.187	0.251	-1.875	-1.624						1.196	178.514	0.147	-0.992	-0.844						2.435	122.46	195.588	-215.860	-20.272						2.248	119.519	189.291	-190.631	-1.339						1.217	130.029	16.405	-36.387	-19.982						1.228	128.983	17.199	-37.175	-19.977						1.214	127.280	16.256	-37.424	-21.168						1.217	126.631	15.914	-34.509	-18.595			
1.197	179.724	0.215	-2.289	-2.07						1.196	179.158	0.261	-1.850	-1.590						1.196	178.496	0.156	-0.948	-0.792						2.427	122.604	194.231	-213.694	-19.463						2.228	119.446	187.247	-187.316	-0.069						1.217	130.039	16.405	-36.344	-19.939						1.228	128.983	17.213	-37.153	-19.941						1.214	127.270	16.201	-37.265	-21.064						1.216	126.646	15.891	-34.373	-18.482			
1.197	179.732	0.239	-2.278	-2.04						1.196	179.136	0.279	-1.829	-1.550						1.197	178.437	0.166	-0.893	-0.727						2.419	122.758	192.765	-211.367	-18.602						2.200	119.460	184.314	-183.082	1.232						1.217	130.048	16.402	-36.291	-19.889						1.228	128.985	17.224	-37.126	-19.902						1.215	127.260	16.131	-37.084	-20.953						1.216	126.663	15.874	-34.240	-18.366			
1.197	179.728	0.258	-2.252	-1.99						1.197	179.130	0.304	-1.805	-1.501						1.196	178.442	0.173	-0.821	-0.648						2.41	122.918	191.252	-208.952	-17.700						2.176	119.388	181.785	-179.256	2.529						1.218	130.058	16.394	-36.225	-19.831						1.228	128.987	17.235	-37.094	-19.859						1.215	127.248	16.076	-36.914	-20.839						1.216	126.680	15.856	-34.106	-18.250			
1.197	179.725	0.294	-2.236	-1.94						1.197	179.117	0.331	-1.769	-1.437						1.196	178.551	0.164	-0.715	-0.551						2.4	123.084	189.685	-206.452	-16.767						2.147	119.341	178.790	-174.988	3.802						1.218	130.067	16.379	-36.146	-19.767						1.228	128.991	17.244	-37.057	-19.813						1.215	127.238	16.020	-36.738	-20.718						1.216	126.699	15.850	-33.984	-18.134			
1.197	179.728	0.342	-2.218	-1.88						1.197	179.097	0.364	-1.722	-1.358						1.198	178.192	0.250	-0.690	-0.440						2.39	123.253	188.090	-203.902	-15.812						2.118	119.340	175.478	-170.439	5.039						1.218	130.076	16.358	-36.054	-19.696						1.228	128.996	17.253	-37.015	-19.763						1.215	127.230	15.974	-36.566	-20.592						1.216	126.719	15.854	-33.872	-18.018			
1.198	179.735	0.410	-2.208	-1.80						1.197	179.065	0.405	-1.672	-1.267						1.196	178.430	0.201	-0.512	-0.311						2.379	123.426	186.463	-201.311	-14.848						2.093	119.184	173.035	-166.847	6.188						1.218	130.086	16.331	-35.949	-19.618						1.228	129.001	17.260	-36.969	-19.709						1.215	127.223	15.925	-36.386	-20.461						1.217	126.740	15.850	-33.753	-17.903			
1.198	179.71	0.457	-2.166	-1.71						1.197	178.997	0.454	-1.614	-1.160						1.198	178.151	0.271	-0.430	-0.158						2.367	123.601	184.808	-198.695	-13.886						2.058	119.303	168.546	-161.312	7.234						1.218	130.097	16.298	-35.831	-19.532						1.228	129.008	17.266	-36.917	-19.651						1.215	127.218	15.888	-36.216	-20.328						1.217	126.760	15.832	-33.621	-17.789			
1.198	179.693	0.530	-2.134	-1.60						1.197	179.034	0.504	-1.540	-1.036						1.198	178.104	0.316	-0.296	0.020						2.354	123.779	183.129	-196.065	-12.936						2.027	119.249	165.365	-157.190	8.175						1.218	130.111	16.261	-35.701	-19.440						1.228	129.017	17.269	-36.858	-19.589						1.216	127.215	15.851	-36.042	-20.192						1.217	126.781	15.831	-33.507	-17.676			
1.198	179.686	0.630	-2.106	-1.48						1.196	179.136	0.522	-1.413	-0.891						1.197	178.139	0.307	-0.081	0.226						2.34	123.961	181.436	-193.442	-12.007						1.990	119.319	161.125	-152.118	9.007						1.218	130.125	16.221	-35.561	-19.340						1.228	129.027	17.267	-36.790	-19.523						1.216	127.212	15.802	-35.853	-20.052						1.217	126.804	15.838	-33.402	-17.564			
1.198	179.663	0.734	-2.062	-1.33						1.199	178.807	0.681	-1.417	-0.736						1.198	177.945	0.408	0.049	0.458						2.324	124.145	179.730	-190.837	-11.107						1.950	119.479	156.248	-146.526	9.721						1.218	130.139	16.178	-35.411	-19.233						1.228	129.038	17.258	-36.712	-19.453						1.216	127.211	15.746	-35.655	-19.909						1.217	126.827	15.842	-33.294	-17.452			
1.201	179.501	0.907	-2.067	-1.16						1.197	178.890	0.724	-1.275	-0.551						1.197	177.917	0.425	0.296	0.721						2.307	124.335	177.993	-188.238	-10.244						1.910	119.581	151.936	-141.621	10.314						1.218	130.155	16.133	-35.253	-19.120						1.228	129.052	17.243	-36.623	-19.379						1.216	127.211	15.711	-35.475	-19.764						1.218	126.850	15.835	-33.178	-17.342			
1.196	179.742	0.970	-1.942	-0.97						1.199	178.770	0.861	-1.203	-0.341						1.199	177.644	0.561	0.453	1.013						2.288	124.531	176.208	-185.630	-9.422						1.865	119.868	146.186	-135.384	10.802						1.218	130.171	16.088	-35.088	-19.000						1.228	129.069	17.220	-36.522	-19.301						1.216	127.212	15.671	-35.287	-19.616						1.218	126.874	15.838	-33.071	-17.233			
1.2	179.454	1.178	-1.937	-0.76						1.199	178.691	0.974	-1.084	-0.109						1.198	177.468	0.626	0.721	1.347						2.267	124.737	174.366	-183.001	-8.635						1.817	120.195	140.269	-129.076	11.193						1.218	130.19	16.025	-34.899	-18.874						1.227	129.087	17.189	-36.407	-19.218						1.216	127.214	15.617	-35.084	-19.466						1.218	126.898	15.857	-32.981	-17.124			
1.199	179.511	1.345	-1.866	-0.52						1.199	178.577	1.117	-0.959	0.158						1.199	177.216	0.773	0.951	1.724						2.244	124.954	172.453	-180.333	-7.880						1.767	120.614	133.719	-122.220	11.498						1.219	130.21	15.967	-34.710	-18.742						1.227	129.107	17.147	-36.278	-19.131						1.217	127.219	15.587	-34.903	-19.316						1.218	126.923	15.873	-32.888	-17.015			
1.201	179.383	1.582	-1.833	-0.25						1.199	178.486	1.282	-0.824	0.457						1.199	176.899	0.927	1.210	2.137						2.22	125.186	170.447	-177.596	-7.149						1.715	121.114	126.576	-114.853	11.724						1.219	130.233	15.884	-34.490	-18.605						1.227	129.13	17.095	-36.133	-19.038						1.217	127.226	15.555	-34.718	-19.163						1.218	126.948	15.876	-32.783	-16.907			
1.201	179.295	1.822	-1.775	0.05						1.200	178.336	1.491	-0.710	0.781						1.200	176.443	1.133	1.458	2.591						2.194	125.435	168.322	-174.759	-6.437						1.659	121.750	118.503	-106.641	11.862						1.219	130.257	15.812	-34.275	-18.463						1.227	129.155	17.032	-35.973	-18.941						1.217	127.234	15.515	-34.524	-19.009						1.218	126.974	15.883	-32.682	-16.800			
1.201	179.138	2.106	-1.733	0.37						1.200	178.128	1.716	-0.580	1.136						1.200	175.868	1.368	1.723	3.092						2.166	125.705	166.061	-171.794	-5.734						1.602	122.488	109.818	-97.909	11.909						1.219	130.281	15.730	-34.046	-18.316						1.226	129.181	16.959	-35.798	-18.839						1.217	127.244	15.470	-34.322	-18.852						1.219	126.999	15.887	-32.580	-16.694			
1.202	178.92	2.439	-1.704	0.73						1.201	177.856	1.980	-0.449	1.531						1.201	175.159	1.692	1.947	3.639						2.137	125.998	163.642	-168.676	-5.034						1.546	123.219	101.357	-89.497	11.860						1.219	130.306	15.647	-33.810	-18.163						1.226	129.21	16.875	-35.608	-18.733						1.217	127.257	15.425	-34.121	-18.696						1.219	127.026	15.886	-32.473	-16.587			
1.203	178.594	2.808	-1.674	1.13						1.201	177.503	2.291	-0.329	1.962						1.203	174.255	2.111	2.117	4.228						2.107	126.315	161.051	-165.385	-4.334						1.490	124.050	92.583	-80.862	11.721						1.219	130.332	15.559	-33.564	-18.005						1.225	129.24	16.783	-35.404	-18.621						1.217	127.269	15.391	-33.929	-18.539						1.219	127.047	15.889	-32.369	-16.481			
1.203	178.161	3.242	-1.667	1.57						1.202	177.023	2.667	-0.237	2.430						1.204	173.143	2.633	2.226	4.859						2.076	126.665	158.231	-161.863	-3.632						1.439	124.980	83.888	-72.389	11.499						1.219	130.361	15.470	-33.313	-17.843						1.225	129.272	16.678	-35.184	-18.506						1.218	127.281	15.396	-33.775	-18.380						1.219	127.081	15.889	-32.261	-16.372			
1.204	177.557	3.745	-1.681	2.06						1.203	176.389	3.103	-0.165	2.938						1.206	171.865	3.295	2.234	5.529						2.044	127.018	155.236	-158.160	-2.924						1.394	125.979	75.542	-64.381	11.161						1.219	130.39	15.378	-33.056	-17.678						1.224	129.305	16.576	-34.961	-18.385						1.217	127.296	15.291	-33.513	-18.222						1.220	127.101	15.900	-32.166	-16.266			
1.206	176.757	4.313	-1.720	2.59						1.204	175.584	3.625	-0.134	3.490						1.208	170.436	4.135	2.094	6.229						2.013	127.454	152.093	-154.314	-2.221						1.355	126.994	68.154	-57.530	10.623						1.219	130.421	15.282	-32.790	-17.508						1.224	129.338	16.466	-34.728	-18.261						1.218	127.309	15.286	-33.348	-18.062						1.220	127.129	15.898	-32.057	-16.159			
1.207	175.762	4.987	-1.814	3.17						1.205	174.597	4.248	-0.160	4.088						1.211	168.870	5.156	1.782	6.938						1.978	127.88	148.541	-150.061	-1.520						1.323	127.957	62.161	-52.351	9.811						1.219	130.454	15.180	-32.515	-17.336						1.223	129.371	16.355	-34.488	-18.133						1.218	127.331	15.230	-33.129	-17.899						1.220	127.156	15.891	-31.942	-16.051			
1.208	174.575	5.781	-1.970	3.81						1.207	173.430	4.994	-0.265	4.729						1.215	167.182	6.413	1.223	7.636						1.947	128.296	145.110	-145.934	-0.824						1.301	128.866	57.369	-48.631	8.738						1.219	130.488	15.074	-32.233	-17.159						1.223	129.404	16.243	-34.244	-18.002						1.218	127.345	15.232	-32.971	-17.739						1.220	127.183	15.887	-31.828	-15.942			
1.21	173.216	6.722	-2.216	4.51						1.209	172.098	5.887	-0.476	5.410						1.219	165.400	7.869	0.423	8.292						1.909	128.874	140.729	-140.879	-0.150						1.285	129.716	53.257	-45.776	7.482						1.219	130.523	14.963	-31.941	-16.978						1.222	129.438	16.133	-34.000	-17.867						1.218	127.364	15.178	-32.754	-17.576						1.220	127.212	15.875	-31.707	-15.832			
1.213	171.703	7.828	-2.580	5.25						1.212	170.619	6.949	-0.828	6.122						1.225	163.565	9.618	-0.747	8.870						1.876	129.304	136.949	-136.443	0.506						1.273	130.482	49.657	-43.539	6.118						1.218	130.559	14.846	-31.641	-16.795						1.221	129.471	16.026	-33.756	-17.730						1.219	127.382	15.152	-32.565	-17.413						1.221	127.240	15.860	-31.581	-15.721			
1.216	170.065	9.109	-3.080	6.03						1.215	169.015	8.189	-1.340	6.849						1.231	161.696	11.602	-2.271	9.332						1.839	129.963	132.216	-131.080	1.136						1.262	131.190	46.398	-41.675	4.723						1.218	130.597	14.723	-31.332	-16.609						1.221	129.505	15.926	-33.517	-17.591						1.219	127.402	15.106	-32.355	-17.249						1.221	127.269	15.836	-31.445	-15.609			
1.219	168.333	10.591	-3.761	6.83						1.219	167.315	9.641	-2.070	7.571						1.239	159.815	13.892	-4.254	9.637						1.804	130.466	127.852	-126.113	1.739						1.256	131.785	43.645	-40.282	3.363						1.218	130.637	14.601	-31.022	-16.422						1.22	129.538	15.831	-33.282	-17.450						1.219	127.422	15.067	-32.153	-17.085						1.221	127.297	15.807	-31.303	-15.495			
1.224	166.532	12.285	-4.656	7.63						1.223	165.547	11.294	-3.031	8.264						1.249	157.915	16.531	-6.786	9.745						1.767	131.191	122.749	-120.444	2.304						1.248	132.331	41.174	-39.076	2.097						1.218	130.68	14.477	-30.709	-16.232						1.22	129.572	15.742	-33.050	-17.308						1.219	127.444	15.029	-31.951	-16.922						1.221	127.326	15.777	-31.157	-15.380			
1.228	164.682	14.193	-5.792	8.40						1.229	163.735	13.196	-4.301	8.895						1.258	156.026	19.449	-9.820	9.630						1.731	131.75	117.946	-115.109	2.837						1.249	132.712	39.224	-38.260	0.964						1.218	130.724	14.349	-30.389	-16.040						1.219	129.605	15.658	-32.823	-17.165						1.219	127.466	14.997	-31.756	-16.759						1.221	127.355	15.745	-31.007	-15.262			
1.234	162.801	16.342	-7.226	9.12						1.235	161.896	15.327	-5.891	9.436						1.269	154.133	22.691	-13.422	9.270						1.697	132.722	112.464	-109.117	3.347						1.241	133.067	37.455	-37.492	-0.037						1.218	130.769	14.218	-30.063	-15.846						1.218	129.64	15.577	-32.598	-17.021						1.220	127.490	14.960	-31.555	-16.594						1.222	127.383	15.703	-30.847	-15.143			
1.241	160.903	18.737	-8.990	9.75						1.242	160.043	17.726	-7.871	9.854						1.282	152.281	26.323	-17.663	8.659						1.658	133.018	107.634	-103.834	3.800						1.240	133.324	36.120	-37.018	-0.899						1.218	130.815	14.084	-29.733	-15.650						1.218	129.674	15.499	-32.375	-16.876						1.220	127.514	14.920	-31.350	-16.430						1.222	127.411	15.650	-30.673	-15.023			
1.248	159.003	21.395	-11.125	10.27						1.251	158.182	20.405	-10.284	10.120						1.296	150.461	30.390	-22.578	7.812						1.626	134.196	102.350	-98.174	4.177						1.240	133.475	35.126	-36.776	-1.649						1.218	130.863	13.949	-29.401	-15.453						1.218	129.709	15.422	-32.152	-16.730						1.220	127.539	14.876	-31.140	-16.264						1.222	127.439	15.593	-30.493	-14.900			
1.257	157.113	24.298	-13.636	10.66						1.261	156.315	23.385	-13.172	10.213						1.312	148.688	34.873	-28.112	6.761						1.584	134.752	96.888	-92.355	4.533						1.238	133.588	34.230	-36.560	-2.330						1.218	130.911	13.811	-29.066	-15.255						1.217	129.745	15.346	-31.929	-16.583						1.220	127.564	14.827	-30.926	-16.099						1.222	127.467	15.537	-30.313	-14.776			
1.268	155.244	27.534	-16.629	10.90						1.272	154.461	26.651	-16.534	10.117						1.330	146.958	39.832	-34.273	5.559						1.553	135.765	91.678	-86.825	4.853						1.235	133.685	33.654	-36.578	-2.924						1.218	130.961	13.671	-28.728	-15.057						1.217	129.782	15.269	-31.704	-16.435						1.220	127.591	14.779	-30.712	-15.933						1.223	127.495	15.483	-30.132	-14.649			
1.281	153.388	31.132	-20.145	10.99						1.284	152.610	30.269	-20.441	9.828						1.348	145.296	45.296	-41.021	4.275						1.518	136.683	86.273	-81.127	5.146						1.241	133.627	33.071	-36.509	-3.438						1.218	131.012	13.529	-28.388	-14.859						1.216	129.819	15.192	-31.479	-16.286						1.221	127.617	14.733	-30.500	-15.767						1.223	127.524	15.429	-29.949	-14.520			
1.294	151.545	35.041	-24.137	10.90						1.298	150.797	34.287	-24.935	9.352						1.369	143.728	51.245	-48.270	2.975						1.486	137.732	80.995	-75.571	5.423						1.233	133.662	32.914	-36.881	-3.967						1.217	131.065	13.385	-28.045	-14.660						1.216	129.857	15.115	-31.252	-16.136						1.221	127.645	14.688	-30.288	-15.600						1.223	127.554	15.374	-29.763	-14.389			
1.309	149.723	39.365	-28.697	10.67						1.314	149.017	38.759	-30.049	8.710						1.391	142.284	57.514	-55.788	1.726						1.455	138.878	75.465	-69.769	5.697						1.235	133.629	32.426	-36.866	-4.440						1.217	131.121	13.233	-27.695	-14.462						1.216	129.897	15.038	-31.023	-15.985						1.221	127.674	14.643	-30.076	-15.433						1.223	127.584	15.315	-29.572	-14.256			
1.327	147.934	44.220	-33.916	10.30						1.333	147.281	43.744	-35.802	7.942						1.414	140.947	63.849	-63.266	0.582						1.426	140.195	69.615	-63.635	5.980						1.235	133.588	32.221	-37.080	-4.859						1.217	131.176	13.093	-27.356	-14.263						1.215	129.937	14.960	-30.792	-15.833						1.221	127.703	14.597	-29.863	-15.266						1.223	127.614	15.250	-29.371	-14.122			
1.348	146.173	49.668	-39.814	9.85						1.353	145.595	49.293	-42.191	7.102						1.437	139.701	70.121	-70.554	-0.432						1.4	141.683	63.498	-57.202	6.295						1.234	133.541	32.031	-37.272	-5.241						1.217	131.233	12.937	-27.003	-14.065						1.215	129.978	14.880	-30.559	-15.679						1.222	127.733	14.550	-29.648	-15.098						1.224	127.645	15.176	-29.162	-13.986			
1.371	144.447	55.728	-46.358	9.37						1.375	143.960	55.397	-49.136	6.262						1.462	138.505	76.209	-77.535	-1.326						1.375	143.291	57.258	-50.600	6.657						1.234	133.488	31.880	-37.468	-5.588						1.217	131.291	12.785	-26.653	-13.868						1.215	130.02	14.800	-30.323	-15.523						1.222	127.764	14.500	-29.430	-14.930						1.224	127.676	15.096	-28.944	-13.848			
1.396	142.763	62.238	-53.328	8.91						1.399	142.400	61.857	-56.372	5.485						1.490	137.382	82.056	-84.186	-2.130						1.351	144.918	51.359	-44.310	7.049						1.234	133.429	31.755	-37.659	-5.904						1.217	131.349	12.629	-26.301	-13.672						1.215	130.064	14.717	-30.082	-15.365						1.222	127.796	14.448	-29.209	-14.762						1.224	127.710	15.008	-28.717	-13.710			
1.423	141.143	68.822	-60.323	8.50						1.423	140.948	68.355	-63.552	4.804						1.520	136.326	87.482	-90.362	-2.880						1.33	146.575	46.023	-38.595	7.428						1.233	133.364	31.663	-37.856	-6.193						1.217	131.408	12.473	-25.950	-13.477						1.214	130.109	14.631	-29.837	-15.206						1.222	127.830	14.388	-28.981	-14.593						1.224	127.744	14.938	-28.508	-13.570			
1.451	139.697	75.213	-67.082	8.13						1.448	139.601	74.607	-70.396	4.211						1.554	135.347	92.628	-96.239	-3.611						1.312	148.25	41.287	-33.544	7.742						1.232	133.292	31.607	-38.066	-6.459						1.217	131.468	12.316	-25.599	-13.283						1.214	130.155	14.541	-29.586	-15.045						1.222	127.864	14.340	-28.765	-14.425						1.225	127.776	14.848	-28.277	-13.429			
1.488	138.492	81.636	-73.863	7.77						1.475	138.363	80.245	-76.579	3.666						1.590	134.635	97.584	-101.911	-4.326						1.296	149.952	37.085	-29.136	7.949						1.232	133.215	31.581	-38.289	-6.708						1.216	131.529	12.159	-25.250	-13.091						1.214	130.204	14.444	-29.326	-14.882						1.223	127.897	14.280	-28.537	-14.257						1.225	127.809	14.766	-28.053	-13.287			
